##TITLE=3-chloroaniline
##JCAMP-DX=5.01  $$ Nicolet v. 521
##DATATYPE=INFRARED SPECTRUM
##ORIGIN=Lab
##OWNER=Nicolet
##LONGDATE=2015/11/02
##TIME=09:47:16
##DATA PROCESSING=
Ratio against background
Truncated
ElementMultiply or ElementDivide
##XUNITS=1/CM
##YUNITS=TRANSMITTANCE
##FIRSTX=399.212341
##LASTX=3999.837646
##FIRSTY=0.479430
##MAXX=3999.837646
##MINX=399.212341
##MAXY=1.006942
##MINY=0.218486
##XFACTOR=1.000000
##YFACTOR=1.000000E-008
##NPOINTS=1868
##DELTAX=1.928562
##XYDATA=(X++(Y..Y))
399.212 47943036 46413508 44696896 43536836 42539940 43023176 46267076 
412.712 50615448 52813348 53403956 54085916 54532156 53830076 52383188 
426.212 50711960 49677148 47878984 45830556 43580076 40239664 36861236 
439.712 36045388 38435236 43579092 48400772 52117228 54676100 56164368 
453.212 56953008 57017380 56921408 57136728 57920340 58887504 59762848 
466.712 60967344 62044792 62847972 62952368 62506800 62154284 61633604 
480.212 60232980 58408156 56717544 55264040 53871608 53176520 53036576 
493.712 52909524 52630732 52509188 52398236 52305708 52167520 52087128 
507.212 52023476 52032544 51870656 51264388 50323740 49426252 48622816 
520.712 47648956 46432180 45338840 44415216 44735764 48299492 52778624 
534.212 53850548 52859056 51662984 50640860 49710308 48998132 48497232 
547.712 48099896 47525520 46936876 46428588 46014736 45644408 45455152 
561.212 45631008 46361012 47867332 50303912 52992908 55594976 57636124 
574.712 58427980 57918404 56796272 55507652 54382904 53465772 52727188 
588.212 52205024 51779304 51324620 51017116 50788900 50594160 50479496 
601.712 50461684 50394144 50354516 50297292 50282776 50214472 50211580 
615.213 50305660 50395052 50324884 50296892 50232144 50163992 49959224 
628.713 49609732 49189172 48903244 48669260 48543496 48620068 48764400 
642.213 48853304 48962020 49069328 49114836 49022476 48961148 48757136 
655.713 48497256 48132628 47689840 47023852 46224532 45389008 44536632 
669.213 42262216 39493288 36035884 31834464 27876944 26357926 29045868 
682.713 35184020 40750248 44100736 48665032 55057376 59873080 62312500 
696.213 63446736 64033928 64360084 64507780 64588456 64571428 64657388 
709.713 64775560 64862532 64947664 65094908 65140608 65292480 65418304 
723.214 65434960 65459008 65488928 65522156 65656976 65620660 65489784 
736.714 65323732 65105612 64813356 64347588 63591620 62578604 61064592 
750.214 58884832 55822360 51576328 45993344 39173652 32199238 26521656 
763.714 23246768 22586850 24295640 27685270 32285396 37628028 43571536 
777.214 49897760 56251176 62076032 66936812 70716776 73522400 75522032 
790.714 76946816 78062208 78887312 79480152 79900112 80268824 80546224 
804.214 80789656 80975688 81125248 81255384 81251832 81158032 81116640 
817.714 80944744 80650752 80289616 79838512 79247784 78515072 77398752 
831.214 75731416 73382128 70117280 65771864 60427060 54595140 49249048 
844.715 45352540 43456708 43661960 45606304 48884492 52953468 57265836 
858.215 61349600 64784424 67287744 68739216 69261792 68971392 67927136 
871.715 66146524 63696024 60543748 56816248 52925076 49272068 46387620 
885.215 44778364 44962084 47623068 53391340 61651408 70521272 78038880 
898.715 83319240 86721552 88834168 90120576 90877480 91374496 91697272 
912.215 91914960 92059552 92183384 92271760 92403192 92456824 92503864 
925.715 92505360 92527664 92518624 92550104 92597232 92639184 92646056 
939.215 92647136 92600616 92594872 92536992 92418560 92293984 92189592 
952.716 91938192 91565744 91122072 90706448 90320864 90115648 90104712 
966.216 90231176 90397392 90608920 90690560 90602584 90186504 89265168 
979.716 87896824 86914704 86223432 84023800 78052232 66365248 54481972 
993.216 56197412 71613856 85289280 90973072 92593704 93047144 93175544 
1006.716 93151784 93136112 93100064 93084736 93062336 93113448 93155336 
1020.216 93190016 93215624 93272584 93319896 93334376 93277344 93208552 
1033.716 93131904 93060888 92911832 92699664 92461320 92198824 91840768 
1047.216 91471112 91058904 90553528 89883056 89085872 88072320 86665416 
1060.717 84695824 82075920 78800248 75051296 70631432 65297272 59294096 
1074.217 54387636 53384280 57283180 64303924 71577056 77146240 80677968 
1087.717 82650216 83671016 84261088 84811016 85393336 86157448 87091352 
1101.217 88031208 88629952 88714648 88376968 87996120 87845488 88218888 
1114.717 88981336 89901672 90743440 91430464 91926096 92258296 92466928 
1128.217 92671432 92812232 92955968 93063960 93198208 93225984 93199928 
1141.717 93116480 92973032 92693288 92326144 91761312 90930056 89607928 
1155.217 87501504 83862976 78014736 71021160 67678136 71955456 80479992 
1168.718 87269120 90835768 92439256 93286480 93785280 94115864 94305360 
1182.218 94429576 94465032 94490432 94471328 94410888 94319800 94231400 
1195.718 94102192 93992480 93830480 93625816 93395744 93244000 93047496 
1209.218 92879640 92718504 92574376 92442272 92408600 92427736 92508544 
1222.718 92533240 92496200 92353328 92162600 91929800 91624312 91161064 
1236.218 90602936 89941312 89189600 88210592 87007224 85461096 83539976 
1249.718 81117800 78083104 74408144 70265976 65918776 61838152 58510792 
1263.218 56410940 56055408 57884652 62237020 68765240 76110064 82429800 
1276.719 86747208 89168800 90193216 90244192 89466048 87927560 85594120 
1290.219 82486232 78610056 74215144 70165784 67537104 66721680 67533472 
1303.719 69815304 73202728 76734864 79503560 80988848 81096160 79936584 
1317.219 78060856 76421800 76230800 78058224 81366480 84938408 87915896 
1330.719 89993656 91368656 92233776 92852576 93287952 93601216 93750896 
1344.219 93970272 94157912 94422968 94641864 94865256 95107488 95365296 
1357.719 95485280 95674304 95864608 95903872 95746600 95771256 95726792 
1371.219 95658752 95700384 95699496 95495808 95459792 95378136 95288208 
1384.719 95152080 95100872 94729528 94294960 93979880 93665472 92949448 
1398.220 92283400 91432160 90696632 90124144 89408120 88595680 87886312 
1411.720 87064736 86224040 85379152 84771496 83988280 83089680 82526680 
1425.220 82040728 81598520 81288024 80590120 79576040 78416784 76645328 
1438.720 74242152 71797560 68625392 64602700 60201592 57224812 59902508 
1452.220 67849224 75205048 79908840 81352432 80109272 77902128 75145680 
1465.720 70503696 65291504 59608400 53586364 46360876 40750260 35913940 
1479.220 32293792 29594484 28930098 31922992 41034368 55018380 69555584 
1492.720 78395776 83446032 87613880 89899160 91076264 91817352 92763624 
1506.221 94018696 93771896 92866696 92292312 91806288 91333968 89938968 
1519.721 88320672 86249200 84673000 84711232 84979664 84570408 84022968 
1533.221 83502744 82460280 81791648 81694912 81332224 80735792 80205304 
1546.721 79656632 79402392 79097672 78472064 77364544 76035936 74332256 
1560.221 70396624 66931160 63918792 61282084 60048736 59450168 58442688 
1573.721 57193876 55159316 51629292 47780932 43648940 40753212 39412888 
1587.221 37651140 33535134 27784134 22920092 21848644 25291964 32123428 
1600.721 39971184 46413852 50270304 51663612 51310548 49253968 45956552 
1614.222 42189508 38816660 36872836 37875920 41303968 47055620 52262652 
1627.722 57603252 62643616 66943968 70948936 75826736 79439456 81866616 
1641.222 84231808 86440816 88643144 90835456 91681200 92600752 94363552 
1654.722 94892848 94674048 94836320 95215304 95858216 95877200 95915872 
1668.222 96346384 96669048 96473000 96561216 96459488 96217032 96369712 
1681.722 96787816 97344768 97032392 96600408 96539480 96377360 96392784 
1695.222 96673912 96728296 96937776 97092592 96649080 96776808 96666136 
1708.722 96575272 96572288 96763848 97159120 97579632 97589264 97179048 
1722.223 96964584 96942208 96876200 96982848 97149488 97401584 97871720 
1735.723 97689608 97515776 97833264 97868424 97953128 98011880 98309768 
1749.223 98506496 98577128 98326272 98337208 98372992 98282688 98412536 
1762.723 98435760 98283576 98494416 98685624 98939184 99135832 98904856 
1776.223 98656976 98651248 98741672 98674680 98645888 98647152 98471136 
1789.723 98626968 98894416 98805552 98596424 98606424 98673048 98786424 
1803.223 98613328 98515472 98514264 98618328 98592088 98397376 98138008 
1816.723 98151728 98103984 98020448 97926424 98019336 97930840 98070072 
1830.224 98171432 98059296 97993616 98152256 98246512 98300968 98456416 
1843.724 98877960 98727712 98592280 98658736 98786992 98817712 98827504 
1857.224 98797000 98785768 98765064 98827336 98848784 98942768 98976680 
1870.724 98837088 98682512 98594624 98474344 98352016 98190048 98343360 
1884.224 98388120 98472472 98688552 98965032 98903184 98853120 98811248 
1897.724 98927576 98832640 98698360 98611728 98554144 98262848 98080056 
1911.224 97798688 97744152 97627456 97667080 97463864 97417856 97431088 
1924.724 97452336 97513352 97737840 97687320 97941456 98384208 98593968 
1938.224 98273176 98395008 98685728 98727512 98519128 98704936 98661432 
1951.725 98690384 98527480 98714992 98640152 98966720 98993880 99535040 
1965.225 99585152 99224592 98738064 98499400 98490296 98388552 97949288 
1978.725 98247080 98230952 98427544 98480880 98755512 98552040 99068560 
1992.225 98788952 98787424 98651528 98380816 98574568 98792152 98208688 
2005.725 98035336 98251080 98709184 98726096 98154680 97054280 97469264 
2019.225 97490432 97754496 98650536 99193240 98606456 98810288 97989376 
2032.725 97241336 96992640 97544336 97419448 97584928 97190408 97222600 
2046.225 97456400 98051160 98031496 98029560 97922048 98356400 98271328 
2059.725 98047544 97950648 98138696 98249344 98381896 98284008 98293672 
2073.224 98562336 98835648 98701400 98711880 98635344 98770304 98637832 
2086.723 98674560 98671544 98795872 98764104 98752712 98799504 98943888 
2100.223 98822352 98803736 98573912 98733944 98727432 98634072 98587136 
2113.722 98661528 98691032 98731680 98608616 98649352 98656304 98884608 
2127.221 98950944 98946832 98995216 99129816 99301816 99474792 99516040 
2140.720 99557272 99091696 99028600 98885728 99270488 98834920 98716144 
2154.220 99162968 99210392 98805248 98424528 98311008 98731568 98168320 
2167.719 97890272 97582472 97812928 97456320 97656296 97857688 98302400 
2181.218 98521576 98211632 97700904 97745776 97852432 98055392 98282992 
2194.718 98341880 98310352 98107824 98160600 98405904 97739216 97334328 
2208.217 97397232 97949488 98166888 98274848 98324520 98184072 98188976 
2221.716 98322264 98098264 98007672 97986848 97951112 98050600 98137808 
2235.215 97808696 97562664 97678056 97784136 97655336 97693968 97675640 
2248.715 97532504 97437080 97538280 97585392 97873776 97892488 97645552 
2262.214 97577720 97725984 97656904 97524952 97584976 97785024 97749552 
2275.713 97704400 97668592 97695568 97673528 97713624 97847704 98025528 
2289.212 98104680 98249240 98276992 98334360 98373832 98336592 98366424 
2302.712 98494696 98526280 98643144 98805776 98896128 98971616 99180688 
2316.211 99373056 99499224 99593096 99742112 99767192 99773856 99816424 
2329.710 99876000 99840280 99832360 99971024 100251256 100393696 100419032 
2343.209 100364200 100176216 99656416 99362128 99690176 100204320 100482088 
2356.709 100552344 100641968 100694192 100559472 100461816 100244416 
2368.280 99988872 99745064 99536432 99226336 98838544 98491248 98275272 
2381.779 98105392 97971136 97899944 97907072 97956888 98107440 98206304 
2395.278 98232696 98302392 98435392 98412136 98513424 98625136 98618712 
2408.777 98648400 98709952 98723552 98775216 98772848 98735568 98636576 
2422.277 98632856 98651944 98851288 98882168 98810920 98749112 98724752 
2435.776 98737264 98752296 98665800 98591544 98615552 98706456 98682568 
2449.275 98692376 98764200 98759800 98697424 98650776 98509728 98520752 
2462.774 98530392 98583376 98575656 98505120 98448384 98517152 98498544 
2476.274 98419368 98386928 98386272 98421568 98422904 98376408 98436160 
2489.773 98456224 98519608 98540984 98612376 98626400 98523944 98446168 
2503.272 98497344 98516168 98508200 98437136 98510552 98491472 98477848 
2516.771 98518736 98499528 98481840 98523488 98593480 98571832 98540408 
2530.271 98652176 98603152 98601624 98571912 98554920 98590592 98589504 
2543.770 98485640 98402376 98284768 98245760 98166320 97998168 97916136 
2557.269 97921832 97835408 97799040 97761360 97720936 97620808 97685776 
2570.769 97811336 97754560 97672272 97705536 97726792 97739328 97661304 
2584.268 97649528 97675912 97682224 97637256 97580368 97587728 97631256 
2597.767 97584808 97525872 97476840 97409744 97336184 97348248 97274464 
2611.266 97250024 97284336 97320448 97370112 97402616 97356400 97358584 
2624.766 97390136 97427736 97458968 97523832 97574192 97652800 97671936 
2638.265 97654232 97598416 97593752 97580080 97540896 97514992 97507104 
2651.764 97496400 97459640 97450800 97457440 97447048 97435296 97366200 
2665.263 97359104 97387784 97372016 97326176 97322832 97312112 97337536 
2678.763 97351416 97352936 97403784 97454664 97452888 97480208 97517152 
2692.262 97538128 97572096 97577736 97549640 97591248 97634960 97676344 
2705.761 97704904 97716784 97746616 97702992 97646288 97660640 97671856 
2719.260 97648016 97581112 97555152 97516264 97456552 97375608 97301408 
2732.760 97247752 97186840 97100768 97041816 96977016 96895408 96893328 
2746.259 96938232 96946048 96979648 97065976 97187336 97274480 97398960 
2759.758 97499560 97604376 97729640 97819448 97815648 97806240 97847384 
2773.258 97922960 97967976 97952064 97934600 97951264 97999256 98078064 
2786.757 98122784 98133888 98124672 98157792 98183512 98205712 98213048 
2800.256 98244496 98280184 98265024 98267624 98297384 98284480 98276152 
2813.755 98271016 98268840 98286624 98276600 98273720 98250480 98216080 
2827.255 98214896 98228528 98219832 98195584 98181888 98172856 98154088 
2840.754 98129992 98160640 98148888 98043248 98023056 98035504 98035904 
2854.253 98043576 97989816 97905176 97856736 97859248 97917832 97910880 
2867.752 97853464 97838688 97782136 97757952 97810936 97863552 97870168 
2881.252 97829984 97796000 97793576 97777912 97803000 97792776 97822648 
2894.751 97873704 97957288 98046584 98092096 98094248 98070128 98053520 
2908.250 97997264 97987192 97975080 97969344 98014176 98049528 98079144 
2921.750 98077568 98076496 98076032 98097544 98091520 98150936 98186792 
2935.249 98188904 98152968 98161600 98169416 98056096 98024168 98054208 
2948.748 98055408 98020144 97968104 97997432 98111920 98118800 98078816 
2962.247 98083648 98093984 98102272 98097264 98056816 98003264 97952360 
2975.747 97934576 97891008 97782024 97751176 97716728 97689472 97671848 
2989.246 97551208 97390976 97307592 97210784 97055056 96890624 96701272 
3002.745 96475232 96281464 96077744 95823576 95576928 95443648 95379992 
3016.244 95299376 95228968 95135568 94947528 94842808 94884984 94923632 
3029.744 94943696 95042640 95051576 95076080 95085672 95025176 94818568 
3043.243 94573056 94306856 94008144 93661672 93433992 93249984 93069912 
3056.742 93011072 93065928 93219064 93392184 93554992 93786736 94046472 
3070.241 94325200 94605448 94877600 95020696 95125608 95165680 95149256 
3083.741 95208608 95307584 95392224 95493880 95666248 95855472 95960224 
3097.240 96079296 96246104 96343120 96436424 96519192 96553560 96531744 
3110.739 96526104 96594144 96625064 96632616 96621312 96592640 96587280 
3124.239 96586824 96597848 96630720 96631256 96636552 96635456 96536808 
3137.738 96464424 96442552 96398976 96289600 96198344 96232592 96189304 
3151.237 96094496 96058504 96086408 96047272 95980320 95946080 95903456 
3164.736 95824032 95747944 95666032 95606576 95526816 95401176 95222600 
3178.236 95084224 94937040 94773200 94588792 94371640 94062424 93730816 
3191.735 93400848 93088296 92740128 92314176 91837352 91346104 90886896 
3205.234 90483232 90163672 89872480 89701456 89707568 89736216 89848744 
3218.733 90021112 90168944 90311768 90546768 90791280 91028552 91238504 
3232.233 91433872 91749664 92104792 92352952 92636848 92856800 93052480 
3245.732 93213816 93373032 93586464 93798248 93914344 93938112 93989000 
3259.231 94024832 94088976 94193800 94168496 94128544 94086304 94016352 
3272.730 93983992 93986992 93891392 93723144 93663368 93605520 93446416 
3286.230 93249720 93009880 92806856 92547448 92210320 91943288 91744928 
3299.729 91480376 91210760 90854520 90455376 90066464 89712872 89310664 
3313.228 88851992 88423448 88066568 87703360 87242944 86779624 86348296 
3326.728 85934240 85470472 84922016 84366984 83844688 83362288 82817560 
3340.227 82236712 81709976 81159280 80601896 80030640 79491664 79080840 
3353.726 78686488 78425840 78329944 78319064 78353680 78493920 78631536 
3367.225 78847384 79027624 79157192 79354136 79578016 79718496 79858736 
3380.725 80032360 80336888 80625472 80931504 81371128 81952784 82719408 
3394.224 83596216 84464000 85386104 86338192 87273192 88007640 88503976 
3407.723 88820544 88975760 89007624 88959640 88795288 88545568 88283384 
3421.222 87988704 87654472 87307480 87015368 86758408 86547184 86329560 
3434.722 86130296 86030072 86011936 86015592 86043968 86073488 86028600 
3448.221 86035984 86076800 86130520 86161248 86233208 86265800 86343760 
3461.720 86468552 86563152 86648368 86759432 86901504 87127024 87326688 
3475.219 87608776 88040432 88490792 88962720 89559368 90121952 90720896 
3488.719 91437296 92209440 92962856 93705248 94437584 94962408 95387640 
3502.218 95911424 96357776 96585512 96853552 97095512 97203936 97308544 
3515.717 97481088 97658912 97667160 97787960 97938472 98017048 98124432 
3529.217 98128192 98156768 98199552 98229256 98248296 98177648 98223544 
3542.716 98402528 98479456 98474272 98457296 98346800 98377728 98386432 
3556.215 98322880 98338632 98503088 98625320 98696192 98818928 98889080 
3569.714 98598464 98397480 98459928 98592856 98544840 98494416 98535912 
3583.214 98624544 98885848 99072056 98806464 98624920 98781568 98930472 
3596.713 98871672 98769360 98758304 98798760 98840208 98972992 98895736 
3610.212 98670944 98759784 98839160 98780064 98851896 98857376 98714096 
3623.711 98539664 98662928 99147416 99185608 98679312 98527136 98451464 
3637.211 98355408 98246192 98291528 98389528 98473984 98900592 99407664 
3650.710 99197688 98555272 98520496 98788416 98603576 98423600 98386472 
3664.209 98419672 98425648 98808584 99109856 98822376 99077680 99417984 
3677.708 98928768 98622896 98379808 98474112 98683672 98909384 98993272 
3691.208 98729008 98483776 98563208 98561872 98400960 98407056 98351896 
3704.707 98343000 98493760 98786992 99126808 98824504 98272520 98217968 
3718.206 98576968 98840952 98891056 98782328 98729936 98540568 98612288 
3731.706 98969784 99106936 99018848 98767736 98668184 98622352 99052672 
3745.205 99206872 98739520 98796560 98907208 98799448 98430024 98286392 
3758.704 98256672 98296360 98184136 98176632 98106368 98141752 98213104 
3772.203 98152344 98061144 98111056 98353504 98390872 98181904 98200296 
3785.703 98269280 98316192 98295296 98201008 98238584 98479384 98502776 
3799.202 98567344 98856888 98605432 98397704 98499456 98394144 98306504 
3812.701 98288816 98618480 98756560 98579664 98843688 98676056 98450128 
3826.200 98450560 98361608 98387304 98414512 98426072 98744944 99002576 
3839.700 98863176 98618304 98441160 98386768 98463960 98486104 98693832 
3853.199 99058608 98763008 98319096 98128416 98362576 98552416 98508480 
3866.698 98304712 98472360 98548152 98473272 98373104 98059336 98172528 
3880.198 98369216 98317320 98381304 98383528 98068312 98159520 98290336 
3893.697 98183104 98074744 98205200 98550856 98607048 98476968 98289752 
3907.196 98117704 98089816 98103288 98059952 98153920 98229776 98167592 
3920.695 98145136 98156368 98215344 98097576 98045328 98122424 98222304 
3934.195 98180472 98049208 98010928 98144376 98298008 98166960 98045064 
3947.694 98119632 98108224 98051928 98056752 98051360 98053384 98013320 
3961.193 98015768 97997360 97996584 97937920 97949528 98027448 97945368 
3974.692 97883456 98002640 98088032 98081848 98078432 98004744 97945400 
3988.192 97929136 98039520 98104872 98055560 97986864 97957648 98011632 
##END=
